#FILE:                       	VA_130312_Cu_10_Ar.ngb-ss1
#FORMAT:                     	NETZSCH5                  
#IDENTITY:                   	VA_130312_Cu_10_Ar        
#DECIMAL:                    	POINT                     
#SEPARATOR:                  	TAB                       
#MTYPE:                      	DSC                       
#INSTRUMENT:                 	NETZSCH STA 449F1         
#PROJECT:                    	oxide hydroxide           
#DATE/TIME:                  	12.03.2013 14:19:20       
#CORR. FILE:                 	                          
#LABORATORY:                 	Нанотех                   
#OPERATOR:                   	Compositers               
#REMARK:                     	                          
#SAMPLE:                     	VA_130312_Cu_10_Ar        
#SAMPLE MASS /mg:            	7.10                      
#MATERIAL:                   	MxOy.kH2O                 
#REFERENCE:                  	                          
#REFERENCE MASS /mg:         	0                         
#TYPE OF CRUCIBLE:           	DSC/TG pan Pt-Rh          
#SAMPLE CRUCIBLE MASS /mg:   	183.71                    
#REFERENCE CRUCIBLE MASS /mg:	185                       
#CORR. CODE:                 	000                       
#EXO:                        	+1                        
#RANGE:                      	20/10.0(K/min)/350        
#SEGMENT:                    	S1/1                      

##Temp./°C	Time/min	DSC/(mW/mg)	Mass/%	Gas Flow(protective)/(ml/min)	Sensit./(uV/mW)
  21.909	    	    0.00000	     0.26782	100.00000   	20.00000	1.05000
  22.219	    	    0.83874	     0.24450	100.00005   	20.00000	1.04983
  22.529	    	    1.04671	     0.22602	100.0001   	20.00000	1.04966
  22.839	    	    1.19753	     0.21085	100.00015   	20.00000	1.04949
  23.149	    	    1.32264	     0.19601	100.0002   	20.00000	1.04932
  23.459	    	    1.43188	     0.18457	100.00025   	20.00000	1.04915
  23.769	    	    1.52971	     0.17090	100.0003   	20.00000	1.04898
  24.079	    	    1.61972	     0.16273	100.00414   	20.00000	1.04881
  24.389	    	    1.70400	     0.15216	100.00228   	20.00000	1.04864
  24.699	    	    1.78344	     0.14333	100.00245   	20.00000	1.04847
  25.009	    	    1.85893	     0.13523	99.99786   	20.00000	1.04830
  25.319	    	    1.93147	     0.12788	99.99554   	20.00000	1.04813
  25.629	    	    2.00146	     0.12132	99.99831   	20.00000	1.04796
  25.939	    	    2.06911	     0.11382	100.00213   	20.00000	1.04779
  26.249	    	    2.13454	     0.10848	100.0011   	20.00000	1.04762
  26.559	    	    2.19812	     0.10100	100.0004   	20.00000	1.04745
  26.869	    	    2.26010	 9.6020e-002	100.00214   	20.00000	1.04728
  27.179	    	    2.32061	 9.0668e-002	100.00016   	20.00000	1.04711
  27.489	    	    2.37985	 8.5105e-002	99.99984   	20.00000	1.04694
  27.799	    	    2.43790	 8.0135e-002	100.00034   	20.00000	1.04677
  28.109	    	    2.49492	 7.5268e-002	100.00035   	20.00000	1.04660
  28.419	    	    2.55093	 7.0979e-002	100.0013   	20.00000	1.04643
  28.729	    	    2.60587	 6.6490e-002	99.99767   	20.00000	1.04626
  29.039	    	    2.65994	 6.2872e-002	99.99565   	20.00000	1.04609
  29.349	    	    2.71312	 5.8157e-002	99.99837   	20.00000	1.04592
  29.659	    	    2.76562	 5.4318e-002	100.00025   	20.00000	1.04575
  29.969	    	    2.81755	 5.0326e-002	100.00214   	20.00000	1.04558
  30.279	    	    2.86878	 4.6853e-002	100.00059   	20.00000	1.04541
  30.589	    	    2.91938	 4.2112e-002	99.99765   	20.00000	1.04524
  30.899	    	    2.96934	 3.9305e-002	99.99608   	20.00000	1.04507
  31.209	    	    3.01870	 3.6147e-002	99.99847   	20.00000	1.04490
  31.519	    	    3.06754	 3.2415e-002	99.99863   	20.00000	1.04473
  31.829	    	    3.11587	 2.8923e-002	99.99878   	20.00000	1.04456
  32.139	    	    3.16372	 2.6471e-002	99.99905   	20.00000	1.04439
  32.449	    	    3.21115	 2.3568e-002	99.99845   	20.00000	1.04422
  32.759	    	    3.25815	 1.9518e-002	99.99879   	20.00000	1.04405
  33.069	    	    3.30477	 1.6492e-002	100.00036   	20.00000	1.04388
  33.379	    	    3.35105	 1.3402e-002	100.00074   	20.00000	1.04371
  33.689	    	    3.39697	 1.0873e-002	100.00079   	20.00000	1.04354
  33.999	    	    3.44252	 7.2344e-003	99.99901   	20.00000	1.04337
  34.309	    	    3.48773	 5.4525e-003	99.99996   	20.00000	1.04320
  34.619	    	    3.53258	 1.9700e-003	99.99978   	20.00000	1.04303
  34.929	    	    3.57711	-1.0211e-003	99.99943   	20.00000	1.04286
  35.239	    	    3.62131	-3.5432e-003	99.99947   	20.00000	1.04269
  35.549	    	    3.66520	-6.0820e-003	99.99756   	20.00000	1.04252
  35.859	    	    3.70881	-8.4883e-003	99.99959   	20.00000	1.04235
  36.169	    	    3.75214	-1.1130e-002	99.99586   	20.00000	1.04218
  36.479	    	    3.79516	-1.3610e-002	99.99707   	20.00000	1.04201
  36.789	    	    3.83796	-1.5642e-002	99.99892   	20.00000	1.04184
  37.099	    	    3.88050	-1.9013e-002	99.99866   	20.00000	1.04167
  37.409	    	    3.92280	-2.1178e-002	99.99807   	20.00000	1.04150
  37.719	    	    3.96487	-2.3624e-002	99.99605   	20.00000	1.04133
  38.029	    	    4.00679	-2.7911e-002	99.99811   	20.00000	1.04116
  38.339	    	    4.04849	-2.9807e-002	99.99821   	20.00000	1.04099
  38.649	    	    4.09001	-3.3038e-002	99.99618   	20.00000	1.04081
  38.959	    	    4.13133	-3.5701e-002	99.99624   	20.00000	1.04064
  39.269	    	    4.17247	-3.8295e-002	99.99655   	20.00000	1.04047
  39.579	    	    4.21339	-4.0783e-002	99.99617   	20.00000	1.04030
  39.889	    	    4.25409	-4.4434e-002	99.9972   	20.00000	1.04013
  40.199	    	    4.29459	-4.7305e-002	100.00058   	20.00000	1.03996
  40.509	    	    4.33490	-5.0428e-002	100.00084   	20.00000	1.03979
  40.819	    	    4.37500	-5.4575e-002	100.00297   	20.00000	1.03962
  41.129	    	    4.41492	-5.7475e-002	100.00123   	20.00000	1.03945
  41.439	    	    4.45471	-6.1583e-002	99.99921   	20.00000	1.03928
  41.749	    	    4.49431	-6.6411e-002	100.0005   	20.00000	1.03911
  42.059	    	    4.53377	-7.1596e-002	100.00094   	20.00000	1.03894
  42.369	    	    4.57311	-8.0481e-002	100.00209   	20.00000	1.03877
  42.679	    	    4.61233	-9.1693e-002	99.99948   	20.00000	1.03860
  42.989	    	    4.65137	    -0.10570	99.99493   	20.00000	1.03843
  43.299	    	    4.69032	    -0.12214	99.98409   	20.00000	1.03826
  43.609	    	    4.72920	    -0.14043	99.97018   	20.00000	1.03809
  43.919	    	    4.76796	    -0.15927	99.95759   	20.00000	1.03792
  44.229	    	    4.80660	    -0.17764	99.9453   	20.00000	1.03775
  44.539	    	    4.84517	    -0.19488	99.93346   	20.00000	1.03758
  44.849	    	    4.88366	    -0.21208	99.92223   	20.00000	1.03741
  45.159	    	    4.92204	    -0.22639	99.91317   	20.00000	1.03723
  45.469	    	    4.96027	    -0.24328	99.89702   	20.00000	1.03706
  45.779	    	    4.99841	    -0.25752	99.87951   	20.00000	1.03689
  46.089	    	    5.03639	    -0.27147	99.86051   	20.00000	1.03672
  46.399	    	    5.07424	    -0.28443	99.83915   	20.00000	1.03655
  46.709	    	    5.11196	    -0.29887	99.81902   	20.00000	1.03638
  47.019	    	    5.14957	    -0.31273	99.79894   	20.00000	1.03621
  47.329	    	    5.18710	    -0.32632	99.77829   	20.00000	1.03604
  47.639	    	    5.22457	    -0.34041	99.757   	20.00000	1.03587
  47.949	    	    5.26194	    -0.35253	99.73328   	20.00000	1.03570
  48.259	    	    5.29919	    -0.36639	99.70891   	20.00000	1.03553
  48.569	    	    5.33636	    -0.37948	99.68502   	20.00000	1.03536
  48.879	    	    5.37344	    -0.39259	99.65943   	20.00000	1.03519
  49.189	    	    5.41041	    -0.40619	99.63274   	20.00000	1.03502
  49.499	    	    5.44728	    -0.41946	99.60534   	20.00000	1.03485
  49.809	    	    5.48409	    -0.43342	99.5764   	20.00000	1.03468
  50.119	    	    5.52082	    -0.44655	99.54727   	20.00000	1.03451
  50.429	    	    5.55747	    -0.46170	99.51457   	20.00000	1.03433
  50.739	    	    5.59402	    -0.47639	99.4832   	20.00000	1.03416
  51.049	    	    5.63049	    -0.48977	99.4502   	20.00000	1.03399
  51.359	    	    5.66691	    -0.50321	99.41611   	20.00000	1.03382
  51.669	    	    5.70324	    -0.51761	99.38053   	20.00000	1.03365
  51.979	    	    5.73949	    -0.53271	99.34269   	20.00000	1.03348
  52.289	    	    5.77566	    -0.54811	99.30559   	20.00000	1.03331
  52.599	    	    5.81178	    -0.56267	99.26833   	20.00000	1.03314
  52.909	    	    5.84783	    -0.57754	99.23067   	20.00000	1.03297
  53.219	    	    5.88377	    -0.59186	99.19229   	20.00000	1.03280
  53.529	    	    5.91963	    -0.60663	99.1553   	20.00000	1.03263
  53.839	    	    5.95540	    -0.62253	99.1181   	20.00000	1.03246
  54.149	    	    5.99109	    -0.63901	99.07917   	20.00000	1.03229
  54.459	    	    6.02666	    -0.65479	99.03809   	20.00000	1.03212
  54.769	    	    6.06214	    -0.67064	98.99873   	20.00000	1.03195
  55.079	    	    6.09756	    -0.68703	98.95764   	20.00000	1.03177
  55.389	    	    6.13293	    -0.70437	98.91467   	20.00000	1.03160
  55.699	    	    6.16828	    -0.71985	98.8668   	20.00000	1.03143
  56.009	    	    6.20361	    -0.73656	98.81481   	20.00000	1.03126
  56.319	    	    6.23893	    -0.75305	98.76542   	20.00000	1.03109
  56.629	    	    6.27421	    -0.77031	98.71465   	20.00000	1.03092
  56.939	    	    6.30943	    -0.78597	98.66558   	20.00000	1.03075
  57.249	    	    6.34453	    -0.80443	98.6131   	20.00000	1.03058
  57.559	    	    6.37953	    -0.82193	98.55963   	20.00000	1.03041
  57.869	    	    6.41444	    -0.83877	98.50547   	20.00000	1.03024
  58.179	    	    6.44926	    -0.85874	98.44432   	20.00000	1.03007
  58.489	    	    6.48400	    -0.87653	98.39409   	20.00000	1.02990
  58.799	    	    6.51869	    -0.89422	98.339   	20.00000	1.02973
  59.109	    	    6.55335	    -0.91242	98.28706   	20.00000	1.02956
  59.419	    	    6.58795	    -0.93143	98.22961   	20.00000	1.02938
  59.729	    	    6.62246	    -0.95001	98.16014   	20.00000	1.02921
  60.039	    	    6.65690	    -0.96922	98.10216   	20.00000	1.02904
  60.349	    	    6.69130	    -0.98740	98.04203   	20.00000	1.02887
  60.659	    	    6.72564	    -1.00660	97.9849   	20.00000	1.02870
  60.969	    	    6.75994	    -1.02707	97.92159   	20.00000	1.02853
  61.279	    	    6.79423	    -1.04617	97.85354   	20.00000	1.02836
  61.589	    	    6.82851	    -1.06667	97.78297   	20.00000	1.02819
  61.899	    	    6.86276	    -1.08568	97.71193   	20.00000	1.02802
  62.209	    	    6.89697	    -1.10467	97.63601   	20.00000	1.02785
  62.519	    	    6.93116	    -1.12651	97.55946   	20.00000	1.02768
  62.829	    	    6.96528	    -1.14710	97.48337   	20.00000	1.02751
  63.139	    	    6.99936	    -1.16511	97.40878   	20.00000	1.02734
  63.449	    	    7.03337	    -1.18857	97.33214   	20.00000	1.02716
  63.759	    	    7.06737	    -1.20918	97.25629   	20.00000	1.02699
  64.069	    	    7.10130	    -1.23004	97.17826   	20.00000	1.02682
  64.379	    	    7.13516	    -1.25150	97.10265   	20.00000	1.02665
  64.689	    	    7.16897	    -1.27280	97.02361   	20.00000	1.02648
  64.999	    	    7.20276	    -1.29527	96.94379   	20.00000	1.02631
  65.309	    	    7.23654	    -1.31705	96.859   	20.00000	1.02614
  65.619	    	    7.27028	    -1.33915	96.77397   	20.00000	1.02597
  65.929	    	    7.30405	    -1.36228	96.68958   	20.00000	1.02580
  66.239	    	    7.33786	    -1.38456	96.60246   	20.00000	1.02563
  66.549	    	    7.37169	    -1.40661	96.51072   	20.00000	1.02546
  66.859	    	    7.40550	    -1.43062	96.41868   	20.00000	1.02529
  67.169	    	    7.43925	    -1.45381	96.32425   	20.00000	1.02511
  67.479	    	    7.47300	    -1.47774	96.22783   	20.00000	1.02494
  67.789	    	    7.50668	    -1.50150	96.13286   	20.00000	1.02477
  68.099	    	    7.54029	    -1.52541	96.03298   	20.00000	1.02460
  68.409	    	    7.57382	    -1.55056	95.93496   	20.00000	1.02443
  68.719	    	    7.60731	    -1.57419	95.83459   	20.00000	1.02426
  69.029	    	    7.64078	    -1.59925	95.73362   	20.00000	1.02409
  69.339	    	    7.67422	    -1.62423	95.62773   	20.00000	1.02392
  69.649	    	    7.70764	    -1.64898	95.52333   	20.00000	1.02375
  69.959	    	    7.74108	    -1.67548	95.41622   	20.00000	1.02358
  70.269	    	    7.77454	    -1.70130	95.30713   	20.00000	1.02341
  70.579	    	    7.80798	    -1.72455	95.19532   	20.00000	1.02324
  70.889	    	    7.84143	    -1.75397	95.08156   	20.00000	1.02306
  71.199	    	    7.87493	    -1.78067	94.96618   	20.00000	1.02289
  71.509	    	    7.90848	    -1.80784	94.83835   	20.00000	1.02272
  71.819	    	    7.94204	    -1.83638	94.70829   	20.00000	1.02255
  72.129	    	    7.97564	    -1.86368	94.58428   	20.00000	1.02238
  72.439	    	    8.00931	    -1.89269	94.45045   	20.00000	1.02221
  72.749	    	    8.04303	    -1.92179	94.32498   	20.00000	1.02204
  73.059	    	    8.07670	    -1.95078	94.17209   	20.00000	1.02187
  73.369	    	    8.11031	    -1.98042	94.0499   	20.00000	1.02170
  73.679	    	    8.14389	    -2.01077	93.898   	20.00000	1.02153
  73.989	    	    8.17740	    -2.04162	93.75885   	20.00000	1.02136
  74.299	    	    8.21082	    -2.07144	93.59197   	20.00000	1.02119
  74.609	    	    8.24416	    -2.10258	93.45031   	20.00000	1.02101
  74.919	    	    8.27747	    -2.13358	93.26843   	20.00000	1.02084
  75.229	    	    8.31073	    -2.16501	93.11998   	20.00000	1.02067
  75.539	    	    8.34398	    -2.19665	92.98059   	20.00000	1.02050
  75.849	    	    8.37718	    -2.22760	92.82448   	20.00000	1.02033
  76.159	    	    8.41037	    -2.25951	92.68414   	20.00000	1.02016
  76.469	    	    8.44353	    -2.29119	92.52801   	20.00000	1.01999
  76.779	    	    8.47669	    -2.32266	92.38168   	20.00000	1.01982
  77.089	    	    8.50985	    -2.35543	92.21656   	20.00000	1.01965
  77.399	    	    8.54296	    -2.38710	92.04496   	20.00000	1.01948
  77.709	    	    8.57608	    -2.41970	91.89008   	20.00000	1.01931
  78.019	    	    8.60917	    -2.45050	91.7153   	20.00000	1.01914
  78.329	    	    8.64228	    -2.48140	91.55881   	20.00000	1.01897
  78.639	    	    8.67540	    -2.51278	91.37593   	20.00000	1.01879
  78.949	    	    8.70849	    -2.54407	91.21325   	20.00000	1.01862
  79.259	    	    8.74158	    -2.57285	91.03116   	20.00000	1.01845
  79.569	    	    8.77465	    -2.60328	90.87128   	20.00000	1.01828
  79.879	    	    8.80775	    -2.63234	90.6893   	20.00000	1.01811
  80.189	    	    8.84081	    -2.65925	90.50741   	20.00000	1.01794
  80.499	    	    8.87380	    -2.68586	90.32953   	20.00000	1.01777
  80.809	    	    8.90675	    -2.71199	90.15055   	20.00000	1.01760
  81.119	    	    8.93967	    -2.73615	89.9482   	20.00000	1.01743
  81.429	    	    8.97252	    -2.75904	89.7664   	20.00000	1.01726
  81.739	    	    9.00529	    -2.77902	89.5787   	20.00000	1.01709
  82.049	    	    9.03799	    -2.79764	89.3889   	20.00000	1.01692
  82.359	    	    9.07068	    -2.81452	89.1904   	20.00000	1.01674
  82.669	    	    9.10335	    -2.82681	89.0007   	20.00000	1.01657
  82.979	    	    9.13596	    -2.83965	88.8108   	20.00000	1.01640
  83.289	    	    9.16856	    -2.84813	88.6219   	20.00000	1.01623
  83.599	    	    9.20113	    -2.85318	88.4374   	20.00000	1.01606
  83.909	    	    9.23366	    -2.85636	88.2485   	20.00000	1.01589
  84.219	    	    9.26613	    -2.85540	88.0689   	20.00000	1.01572
  84.529	    	    9.29849	    -2.85026	87.8754   	20.00000	1.01555
  84.839	    	    9.33078	    -2.84042	87.7053   	20.00000	1.01538
  85.149	    	    9.36296	    -2.82589	87.5149   	20.00000	1.01521
  85.459	    	    9.39504	    -2.80622	87.3582   	20.00000	1.01504
  85.769	    	    9.42702	    -2.78188	87.1914   	20.00000	1.01487
  86.079	    	    9.45890	    -2.74957	87.0302   	20.00000	1.01470
  86.389	    	    9.49067	    -2.71253	86.8689   	20.00000	1.01452
  86.699	    	    9.52235	    -2.67035	86.7263   	20.00000	1.01435
  87.009	    	    9.55393	    -2.62209	86.5986   	20.00000	1.01418
  87.319	    	    9.58540	    -2.57006	86.4883   	20.00000	1.01401
  87.629	    	    9.61678	    -2.50944	86.3919   	20.00000	1.01384
  87.939	    	    9.64803	    -2.44249	86.2904   	20.00000	1.01367
  88.249	    	    9.67918	    -2.36416	86.2062   	20.00000	1.01350
  88.559	    	    9.71021	    -2.27567	86.1406   	20.00000	1.01333
  88.869	    	    9.74113	    -2.17679	86.0884   	20.00000	1.01316
  89.179	    	    9.77194	    -2.06674	86.0297   	20.00000	1.01299
  89.489	    	    9.80260	    -1.94843	85.9855   	20.00000	1.01282
  89.799	    	    9.83312	    -1.82353	85.9475   	20.00000	1.01265
  90.109	    	    9.86352	    -1.69608	85.9147   	20.00000	1.01248
  90.419	    	    9.89376	    -1.56866	85.8891   	20.00000	1.01230
  90.729	    	    9.92386	    -1.44374	85.8725   	20.00000	1.01213
  91.039	    	    9.95381	    -1.32342	85.8568   	20.00000	1.01196
  91.349	    	    9.98364	    -1.20919	85.8449   	20.00000	1.01179
  91.659	    	   10.01335	    -1.10588	85.8346   	20.00000	1.01162
  91.969	    	   10.04295	    -1.01016	85.8258   	20.00000	1.01145
  92.279	    	   10.07248	    -0.92589	85.8181   	20.00000	1.01128
  92.589	    	   10.10196	    -0.84971	85.8107   	20.00000	1.01111
  92.899	    	   10.13138	    -0.78017	85.8034   	20.00000	1.01094
  93.209	    	   10.16077	    -0.71840	85.7955   	20.00000	1.01077
  93.519	    	   10.19012	    -0.66434	85.7871   	20.00000	1.01060
  93.829	    	   10.21949	    -0.61654	85.78   	20.00000	1.01043
  94.139	    	   10.24885	    -0.57222	85.774   	20.00000	1.01026
  94.449	    	   10.27820	    -0.53633	85.7696   	20.00000	1.01009
  94.759	    	   10.30754	    -0.50215	85.7657   	20.00000	1.00992
  95.069	    	   10.33688	    -0.47176	85.7607   	20.00000	1.00974
  95.379	    	   10.36624	    -0.44537	85.7547   	20.00000	1.00957
  95.689	    	   10.39562	    -0.42517	85.7485   	20.00000	1.00940
  95.999	    	   10.42498	    -0.40557	85.7435   	20.00000	1.00923
  96.309	    	   10.45434	    -0.38757	85.7381   	20.00000	1.00906
  96.619	    	   10.48371	    -0.37412	85.7328   	20.00000	1.00889
  96.929	    	   10.51310	    -0.35983	85.7269   	20.00000	1.00872
  97.239	    	   10.54251	    -0.34936	85.7206   	20.00000	1.00855
  97.549	    	   10.57194	    -0.34024	85.7135   	20.00000	1.00838
  97.859	    	   10.60141	    -0.33262	85.7067   	20.00000	1.00821
  98.169	    	   10.63090	    -0.32512	85.6998   	20.00000	1.00804
  98.479	    	   10.66041	    -0.32159	85.6946   	20.00000	1.00787
  98.789	    	   10.68995	    -0.31757	85.6904   	20.00000	1.00770
  99.099	    	   10.71951	    -0.31417	85.6868   	20.00000	1.00753
  99.409	    	   10.74909	    -0.31139	85.6823   	20.00000	1.00736
  99.719	    	   10.77866	    -0.31142	85.677   	20.00000	1.00719
  100.029	    	   10.80823	    -0.31112	85.6708   	20.00000	1.00702
  100.339	    	   10.83781	    -0.31141	85.6651   	20.00000	1.00684
  100.649	    	   10.86742	    -0.31373	85.6592   	20.00000	1.00667
  100.959	    	   10.89704	    -0.31683	85.6536   	20.00000	1.00650
  101.269	    	   10.92667	    -0.31908	85.6474   	20.00000	1.00633
  101.579	    	   10.95632	    -0.32324	85.6408   	20.00000	1.00616
  101.889	    	   10.98600	    -0.32739	85.6336   	20.00000	1.00599
  102.199	    	   11.01572	    -0.33241	85.6254   	20.00000	1.00582
  102.509	    	   11.04545	    -0.33840	85.6169   	20.00000	1.00565
  102.819	    	   11.07521	    -0.34383	85.6071   	20.00000	1.00548
  103.129	    	   11.10499	    -0.35081	85.5941   	20.00000	1.00531
  103.439	    	   11.13480	    -0.35862	85.5744   	20.00000	1.00514
  103.749	    	   11.16462	    -0.36749	85.5545   	20.00000	1.00497
  104.059	    	   11.19443	    -0.37707	85.5363   	20.00000	1.00480
  104.369	    	   11.22425	    -0.39070	85.5161   	20.00000	1.00463
  104.679	    	   11.25409	    -0.40921	85.488   	20.00000	1.00446
  104.989	    	   11.28391	    -0.43622	85.4545   	20.00000	1.00429
  105.299	    	   11.31377	    -0.48573	85.4041   	20.00000	1.00412
  105.609	    	   11.34372	    -0.56714	85.337   	20.00000	1.00395
  105.919	    	   11.37383	    -0.67136	85.2289   	20.00000	1.00378
  106.229	    	   11.40414	    -0.77881	85.043   	20.00000	1.00361
  106.539	    	   11.43468	    -0.95674	84.8737   	20.00000	1.00344
  106.849	    	   11.46548	    -1.22390	84.6952   	20.00000	1.00326
  107.159	    	   11.49660	    -1.54290	84.4537   	20.00000	1.00309
  107.469	    	   11.52804	    -1.87081	84.2008   	20.00000	1.00292
  107.779	    	   11.55977	    -2.19249	83.9138   	20.00000	1.00275
  108.089	    	   11.59177	    -2.50279	83.651   	20.00000	1.00258
  108.399	    	   11.62404	    -2.79722	83.351   	20.00000	1.00241
  108.709	    	   11.65661	    -3.07600	83.0561   	20.00000	1.00224
  109.019	    	   11.68948	    -3.33457	82.7629   	20.00000	1.00207
  109.329	    	   11.72265	    -3.57872	82.4521   	20.00000	1.00190
  109.639	    	   11.75607	    -3.80113	82.1393   	20.00000	1.00173
  109.949	    	   11.78972	    -4.00796	81.813   	20.00000	1.00156
  110.259	    	   11.82362	    -4.20050	81.4861   	20.00000	1.00139
  110.569	    	   11.85766	    -4.36907	81.1616   	20.00000	1.00122
  110.879	    	   11.89180	    -4.52599	80.8262   	20.00000	1.00105
  111.189	    	   11.92598	    -4.66998	80.4894   	20.00000	1.00088
  111.499	    	   11.96018	    -4.80041	80.1503   	20.00000	1.00071
  111.809	    	   11.99436	    -4.91713	79.8068   	20.00000	1.00054
  112.119	    	   12.02845	    -5.02075	79.4628   	20.00000	1.00037
  112.429	    	   12.06246	    -5.11136	79.127   	20.00000	1.00020
  112.739	    	   12.09635	    -5.18934	78.7819   	20.00000	1.00003
  113.049	    	   12.13012	    -5.25697	78.4392   	20.00000	0.99986
  113.359	    	   12.16378	    -5.31457	78.0999   	20.00000	0.99969
  113.669	    	   12.19732	    -5.36042	77.761   	20.00000	0.99952
  113.979	    	   12.23074	    -5.39531	77.4217   	20.00000	0.99935
  114.289	    	   12.26404	    -5.41743	77.0944   	20.00000	0.99918
  114.599	    	   12.29720	    -5.43037	76.7816   	20.00000	0.99901
  114.909	    	   12.33023	    -5.43596	76.4582   	20.00000	0.99884
  115.219	    	   12.36310	    -5.42999	76.1498   	20.00000	0.99867
  115.529	    	   12.39581	    -5.41283	75.8529   	20.00000	0.99850
  115.839	    	   12.42830	    -5.38703	75.5549   	20.00000	0.99833
  116.149	    	   12.46057	    -5.35478	75.2712   	20.00000	0.99816
  116.459	    	   12.49263	    -5.31421	74.9937   	20.00000	0.99799
  116.769	    	   12.52450	    -5.26627	74.7362   	20.00000	0.99782
  117.079	    	   12.55619	    -5.21153	74.4921   	20.00000	0.99765
  117.389	    	   12.58770	    -5.14938	74.2528   	20.00000	0.99748
  117.699	    	   12.61909	    -5.08244	74.0356   	20.00000	0.99731
  118.009	    	   12.65042	    -5.00848	73.8144   	20.00000	0.99714
  118.319	    	   12.68166	    -4.92789	73.6186   	20.00000	0.99697
  118.629	    	   12.71283	    -4.84295	73.4401   	20.00000	0.99680
  118.939	    	   12.74391	    -4.75030	73.2772   	20.00000	0.99663
  119.249	    	   12.77489	    -4.65165	73.1266   	20.00000	0.99646
  119.559	    	   12.80578	    -4.54771	72.9779   	20.00000	0.99629
  119.869	    	   12.83653	    -4.43708	72.8499   	20.00000	0.99612
  120.179	    	   12.86715	    -4.31992	72.7272   	20.00000	0.99595
  120.489	    	   12.89763	    -4.19765	72.6183   	20.00000	0.99578
  120.799	    	   12.92796	    -4.06878	72.5171   	20.00000	0.99561
  121.109	    	   12.95814	    -3.93426	72.4255   	20.00000	0.99544
  121.419	    	   12.98818	    -3.79509	72.3386   	20.00000	0.99527
  121.729	    	   13.01808	    -3.65379	72.268   	20.00000	0.99510
  122.039	    	   13.04782	    -3.50874	72.1984   	20.00000	0.99493
  122.349	    	   13.07741	    -3.35973	72.1423   	20.00000	0.99476
  122.659	    	   13.10688	    -3.21020	72.0857   	20.00000	0.99459
  122.969	    	   13.13622	    -3.06064	72.0334   	20.00000	0.99442
  123.279	    	   13.16546	    -2.91182	71.9798   	20.00000	0.99425
  123.589	    	   13.19459	    -2.76545	71.929   	20.00000	0.99408
  123.899	    	   13.22359	    -2.62049	71.8931   	20.00000	0.99391
  124.209	    	   13.25252	    -2.47627	71.8557   	20.00000	0.99374
  124.519	    	   13.28136	    -2.33459	71.826   	20.00000	0.99357
  124.829	    	   13.31010	    -2.19514	71.8011   	20.00000	0.99340
  125.139	    	   13.33876	    -2.05886	71.78   	20.00000	0.99323
  125.449	    	   13.36732	    -1.92648	71.7564   	20.00000	0.99306
  125.759	    	   13.39581	    -1.79806	71.7395   	20.00000	0.99289
  126.069	    	   13.42422	    -1.67391	71.7237   	20.00000	0.99272
  126.379	    	   13.45257	    -1.55400	71.7109   	20.00000	0.99255
  126.689	    	   13.48086	    -1.43948	71.6997   	20.00000	0.99238
  126.999	    	   13.50910	    -1.32851	71.6887   	20.00000	0.99221
  127.309	    	   13.53729	    -1.22563	71.68   	20.00000	0.99204
  127.619	    	   13.56545	    -1.12740	71.6697   	20.00000	0.99187
  127.929	    	   13.59359	    -1.03670	71.6627   	20.00000	0.99170
  128.239	    	   13.62172	    -0.95046	71.6548   	20.00000	0.99153
  128.549	    	   13.64984	    -0.87200	71.6502   	20.00000	0.99136
  128.859	    	   13.67798	    -0.79763	71.6455   	20.00000	0.99119
  129.169	    	   13.70614	    -0.73148	71.6414   	20.00000	0.99102
  129.479	    	   13.73433	    -0.67261	71.6373   	20.00000	0.99085
  129.789	    	   13.76256	    -0.62059	71.6323   	20.00000	0.99068
  130.099	    	   13.79083	    -0.57380	71.6281   	20.00000	0.99051
  130.409	    	   13.81915	    -0.53212	71.624   	20.00000	0.99034
  130.719	    	   13.84750	    -0.49504	71.62   	20.00000	0.99017
  131.029	    	   13.87589	    -0.46083	71.6163   	20.00000	0.99000
  131.339	    	   13.90432	    -0.43233	71.6133   	20.00000	0.98983
  131.649	    	   13.93279	    -0.40619	71.6111   	20.00000	0.98966
  131.959	    	   13.96128	    -0.38408	71.6092   	20.00000	0.98949
  132.269	    	   13.98976	    -0.36401	71.6062   	20.00000	0.98932
  132.579	    	   14.01825	    -0.34672	71.6037   	20.00000	0.98915
  132.889	    	   14.04676	    -0.33212	71.602   	20.00000	0.98898
  133.199	    	   14.07527	    -0.31803	71.6013   	20.00000	0.98882
  133.509	    	   14.10379	    -0.30518	71.6007   	20.00000	0.98865
  133.819	    	   14.13232	    -0.29404	71.5988   	20.00000	0.98848
  134.129	    	   14.16087	    -0.28468	71.5961   	20.00000	0.98831
  134.439	    	   14.18945	    -0.27799	71.5924   	20.00000	0.98814
  134.749	    	   14.21808	    -0.26940	71.5877   	20.00000	0.98797
  135.059	    	   14.24673	    -0.26201	71.5829   	20.00000	0.98780
  135.369	    	   14.27543	    -0.25732	71.5781   	20.00000	0.98763
  135.679	    	   14.30416	    -0.25105	71.5744   	20.00000	0.98746
  135.989	    	   14.33293	    -0.24666	71.5713   	20.00000	0.98729
  136.299	    	   14.36173	    -0.24211	71.5688   	20.00000	0.98712
  136.609	    	   14.39052	    -0.23903	71.567   	20.00000	0.98695
  136.919	    	   14.41932	    -0.23601	71.5664   	20.00000	0.98678
  137.229	    	   14.44813	    -0.23484	71.5656   	20.00000	0.98661
  137.539	    	   14.47693	    -0.23185	71.5627   	20.00000	0.98644
  137.849	    	   14.50571	    -0.22894	71.5582   	20.00000	0.98627
  138.159	    	   14.53449	    -0.22659	71.5541   	20.00000	0.98610
  138.469	    	   14.56328	    -0.22555	71.5519   	20.00000	0.98594
  138.779	    	   14.59207	    -0.22434	71.5522   	20.00000	0.98577
  139.089	    	   14.62088	    -0.22279	71.5519   	20.00000	0.98560
  139.399	    	   14.64969	    -0.22169	71.5499   	20.00000	0.98543
  139.709	    	   14.67852	    -0.22013	71.5467   	20.00000	0.98526
  140.019	    	   14.70735	    -0.21936	71.5437   	20.00000	0.98509
  140.329	    	   14.73615	    -0.21810	71.5407   	20.00000	0.98492
  140.639	    	   14.76493	    -0.21715	71.538   	20.00000	0.98475
  140.949	    	   14.79370	    -0.21681	71.5351   	20.00000	0.98458
  141.259	    	   14.82244	    -0.21650	71.5317   	20.00000	0.98441
  141.569	    	   14.85118	    -0.21539	71.5289   	20.00000	0.98424
  141.879	    	   14.87990	    -0.21533	71.5264   	20.00000	0.98407
  142.189	    	   14.90864	    -0.21504	71.5242   	20.00000	0.98391
  142.499	    	   14.93744	    -0.21509	71.5233   	20.00000	0.98374
  142.809	    	   14.96629	    -0.21410	71.5223   	20.00000	0.98357
  143.119	    	   14.99518	    -0.21462	71.521   	20.00000	0.98340
  143.429	    	   15.02412	    -0.21377	71.5197   	20.00000	0.98323
  143.739	    	   15.05312	    -0.21370	71.519   	20.00000	0.98306
  144.049	    	   15.08217	    -0.21305	71.5188   	20.00000	0.98289
  144.359	    	   15.11125	    -0.21263	71.5197   	20.00000	0.98272
  144.669	    	   15.14032	    -0.21185	71.5222   	20.00000	0.98255
  144.979	    	   15.16938	    -0.21237	71.5217   	20.00000	0.98238
  145.289	    	   15.19846	    -0.21210	71.5203   	20.00000	0.98222
  145.599	    	   15.22752	    -0.21233	71.5189   	20.00000	0.98205
  145.909	    	   15.25656	    -0.21270	71.5169   	20.00000	0.98188
  146.219	    	   15.28556	    -0.21274	71.5146   	20.00000	0.98171
  146.529	    	   15.31455	    -0.21241	71.5124   	20.00000	0.98154
  146.839	    	   15.34353	    -0.21218	71.5105   	20.00000	0.98137
  147.149	    	   15.37251	    -0.21222	71.5089   	20.00000	0.98120
  147.459	    	   15.40148	    -0.21189	71.5074   	20.00000	0.98103
  147.769	    	   15.43047	    -0.21224	71.5056   	20.00000	0.98086
  148.079	    	   15.45949	    -0.21279	71.5044   	20.00000	0.98070
  148.389	    	   15.48853	    -0.21320	71.5033   	20.00000	0.98053
  148.699	    	   15.51760	    -0.21268	71.5025   	20.00000	0.98036
  149.009	    	   15.54668	    -0.21242	71.501   	20.00000	0.98019
  149.319	    	   15.57578	    -0.21243	71.4984   	20.00000	0.98002
  149.629	    	   15.60489	    -0.21209	71.4953   	20.00000	0.97985
  149.939	    	   15.63401	    -0.21205	71.4922   	20.00000	0.97968
  150.249	    	   15.66313	    -0.21220	71.4893   	20.00000	0.97951
  150.559	    	   15.69226	    -0.21279	71.4867   	20.00000	0.97935
  150.869	    	   15.72141	    -0.21352	71.4847   	20.00000	0.97918
  151.179	    	   15.75059	    -0.21261	71.4834   	20.00000	0.97901
  151.489	    	   15.77977	    -0.21287	71.483   	20.00000	0.97884
  151.799	    	   15.80895	    -0.21246	71.4833   	20.00000	0.97867
  152.109	    	   15.83815	    -0.21255	71.4828   	20.00000	0.97850
  152.419	    	   15.86734	    -0.21276	71.4822   	20.00000	0.97833
  152.729	    	   15.89653	    -0.21276	71.4799   	20.00000	0.97817
  153.039	    	   15.92570	    -0.21312	71.4778   	20.00000	0.97800
  153.349	    	   15.95484	    -0.21319	71.4755   	20.00000	0.97783
  153.659	    	   15.98394	    -0.21350	71.474   	20.00000	0.97766
  153.969	    	   16.01303	    -0.21398	71.4716   	20.00000	0.97749
  154.279	    	   16.04209	    -0.21389	71.4691   	20.00000	0.97732
  154.589	    	   16.07114	    -0.21361	71.4665   	20.00000	0.97716
  154.899	    	   16.10016	    -0.21337	71.4643   	20.00000	0.97699
  155.209	    	   16.12918	    -0.21385	71.4623   	20.00000	0.97682
  155.519	    	   16.15823	    -0.21439	71.4621   	20.00000	0.97665
  155.829	    	   16.18730	    -0.21380	71.4624   	20.00000	0.97648
  156.139	    	   16.21640	    -0.21401	71.4613   	20.00000	0.97631
  156.449	    	   16.24552	    -0.21452	71.4601   	20.00000	0.97615
  156.759	    	   16.27465	    -0.21447	71.4574   	20.00000	0.97598
  157.069	    	   16.30380	    -0.21527	71.4548   	20.00000	0.97581
  157.379	    	   16.33295	    -0.21516	71.4557   	20.00000	0.97564
  157.689	    	   16.36211	    -0.21515	71.4574   	20.00000	0.97547
  157.999	    	   16.39124	    -0.21523	71.4584   	20.00000	0.97530
  158.309	    	   16.42040	    -0.21486	71.4593   	20.00000	0.97514
  158.619	    	   16.44957	    -0.21512	71.4595   	20.00000	0.97497
  158.929	    	   16.47875	    -0.21529	71.4597   	20.00000	0.97480
  159.239	    	   16.50794	    -0.21558	71.4591   	20.00000	0.97463
  159.549	    	   16.53716	    -0.21556	71.4587   	20.00000	0.97446
  159.859	    	   16.56640	    -0.21627	71.4587   	20.00000	0.97429
  160.169	    	   16.59566	    -0.21611	71.4593   	20.00000	0.97413
  160.479	    	   16.62492	    -0.21636	71.4591   	20.00000	0.97396
  160.789	    	   16.65420	    -0.21680	71.458   	20.00000	0.97379
  161.099	    	   16.68350	    -0.21737	71.4557   	20.00000	0.97362
  161.409	    	   16.71280	    -0.21699	71.4524   	20.00000	0.97345
  161.719	    	   16.74209	    -0.21741	71.4482   	20.00000	0.97329
  162.029	    	   16.77139	    -0.21745	71.4445   	20.00000	0.97312
  162.339	    	   16.80067	    -0.21723	71.4418   	20.00000	0.97295
  162.649	    	   16.82996	    -0.21772	71.4395   	20.00000	0.97278
  162.959	    	   16.85923	    -0.21790	71.4383   	20.00000	0.97262
  163.269	    	   16.88848	    -0.21767	71.4337   	20.00000	0.97245
  163.579	    	   16.91772	    -0.21835	71.4225   	20.00000	0.97228
  163.889	    	   16.94697	    -0.21831	71.4093   	20.00000	0.97211
  164.199	    	   16.97624	    -0.21898	71.4132   	20.00000	0.97194
  164.509	    	   17.00551	    -0.21923	71.4141   	20.00000	0.97178
  164.819	    	   17.03481	    -0.21875	71.4135   	20.00000	0.97161
  165.129	    	   17.06410	    -0.21896	71.412   	20.00000	0.97144
  165.439	    	   17.09341	    -0.21912	71.4114   	20.00000	0.97127
  165.749	    	   17.12274	    -0.21906	71.4101   	20.00000	0.97110
  166.059	    	   17.15206	    -0.21952	71.4088   	20.00000	0.97094
  166.369	    	   17.18139	    -0.21938	71.4079   	20.00000	0.97077
  166.679	    	   17.21072	    -0.21983	71.4066   	20.00000	0.97060
  166.989	    	   17.24006	    -0.22013	71.4051   	20.00000	0.97043
  167.299	    	   17.26942	    -0.22042	71.4027   	20.00000	0.97027
  167.609	    	   17.29879	    -0.22083	71.4008   	20.00000	0.97010
  167.919	    	   17.32818	    -0.22098	71.3986   	20.00000	0.96993
  168.229	    	   17.35758	    -0.22127	71.3972   	20.00000	0.96976
  168.539	    	   17.38698	    -0.22115	71.3966   	20.00000	0.96960
  168.849	    	   17.41638	    -0.22097	71.3974   	20.00000	0.96943
  169.159	    	   17.44576	    -0.22102	71.3988   	20.00000	0.96926
  169.469	    	   17.47515	    -0.22122	71.4004   	20.00000	0.96909
  169.779	    	   17.50454	    -0.22191	71.402   	20.00000	0.96893
  170.089	    	   17.53392	    -0.22213	71.4028   	20.00000	0.96876
  170.399	    	   17.56331	    -0.22195	71.4035   	20.00000	0.96859
  170.709	    	   17.59271	    -0.22255	71.403   	20.00000	0.96842
  171.019	    	   17.62214	    -0.22217	71.4006   	20.00000	0.96826
  171.329	    	   17.65158	    -0.22193	71.3972   	20.00000	0.96809
  171.639	    	   17.68104	    -0.22307	71.3935   	20.00000	0.96792
  171.949	    	   17.71049	    -0.22285	71.3897   	20.00000	0.96775
  172.259	    	   17.73994	    -0.22322	71.3879   	20.00000	0.96759
  172.569	    	   17.76937	    -0.22305	71.3861   	20.00000	0.96742
  172.879	    	   17.79880	    -0.22279	71.3847   	20.00000	0.96725
  173.189	    	   17.82823	    -0.22273	71.3826   	20.00000	0.96709
  173.499	    	   17.85765	    -0.22292	71.38   	20.00000	0.96692
  173.809	    	   17.88707	    -0.22318	71.3776   	20.00000	0.96675
  174.119	    	   17.91651	    -0.22335	71.3763   	20.00000	0.96658
  174.429	    	   17.94596	    -0.22417	71.3754   	20.00000	0.96642
  174.739	    	   17.97543	    -0.22407	71.3755   	20.00000	0.96625
  175.049	    	   18.00489	    -0.22390	71.3755   	20.00000	0.96608
  175.359	    	   18.03434	    -0.22483	71.3749   	20.00000	0.96592
  175.669	    	   18.06379	    -0.22455	71.3738   	20.00000	0.96575
  175.979	    	   18.09321	    -0.22472	71.3726   	20.00000	0.96558
  176.289	    	   18.12262	    -0.22508	71.3712   	20.00000	0.96541
  176.599	    	   18.15202	    -0.22508	71.3702   	20.00000	0.96525
  176.909	    	   18.18143	    -0.22529	71.3694   	20.00000	0.96508
  177.219	    	   18.21084	    -0.22518	71.369   	20.00000	0.96491
  177.529	    	   18.24028	    -0.22543	71.3715   	20.00000	0.96475
  177.839	    	   18.26976	    -0.22538	71.3773   	20.00000	0.96458
  178.149	    	   18.29925	    -0.22574	71.3681   	20.00000	0.96441
  178.459	    	   18.32877	    -0.22645	71.3609   	20.00000	0.96425
  178.769	    	   18.35830	    -0.22628	71.3598   	20.00000	0.96408
  179.079	    	   18.38783	    -0.22638	71.3588   	20.00000	0.96391
  179.389	    	   18.41736	    -0.22616	71.3568   	20.00000	0.96375
  179.699	    	   18.44687	    -0.22711	71.3548   	20.00000	0.96358
  180.009	    	   18.47637	    -0.22757	71.3524   	20.00000	0.96341
  180.319	    	   18.50587	    -0.22701	71.3509   	20.00000	0.96325
  180.629	    	   18.53536	    -0.22761	71.3502   	20.00000	0.96308
  180.939	    	   18.56483	    -0.22809	71.3511   	20.00000	0.96291
  181.249	    	   18.59427	    -0.22796	71.3513   	20.00000	0.96275
  181.559	    	   18.62373	    -0.22836	71.3515   	20.00000	0.96258
  181.869	    	   18.65320	    -0.22888	71.3506   	20.00000	0.96241
  182.179	    	   18.68265	    -0.22920	71.3491   	20.00000	0.96225
  182.489	    	   18.71208	    -0.22958	71.3464   	20.00000	0.96208
  182.799	    	   18.74152	    -0.22922	71.343   	20.00000	0.96191
  183.109	    	   18.77096	    -0.22967	71.3385   	20.00000	0.96175
  183.419	    	   18.80041	    -0.23019	71.3332   	20.00000	0.96158
  183.729	    	   18.82984	    -0.23080	71.3288   	20.00000	0.96141
  184.039	    	   18.85926	    -0.23075	71.3254   	20.00000	0.96125
  184.349	    	   18.88869	    -0.23114	71.3227   	20.00000	0.96108
  184.659	    	   18.91813	    -0.23178	71.3208   	20.00000	0.96091
  184.969	    	   18.94756	    -0.23181	71.3199   	20.00000	0.96075
  185.279	    	   18.97699	    -0.23186	71.3197   	20.00000	0.96058
  185.589	    	   19.00641	    -0.23143	71.3202   	20.00000	0.96042
  185.899	    	   19.03582	    -0.23260	71.3207   	20.00000	0.96025
  186.209	    	   19.06523	    -0.23303	71.3205   	20.00000	0.96008
  186.519	    	   19.09463	    -0.23373	71.32   	20.00000	0.95992
  186.829	    	   19.12401	    -0.23385	71.3199   	20.00000	0.95975
  187.139	    	   19.15338	    -0.23485	71.3205   	20.00000	0.95958
  187.449	    	   19.18274	    -0.23437	71.3218   	20.00000	0.95942
  187.759	    	   19.21209	    -0.23464	71.3225   	20.00000	0.95925
  188.069	    	   19.24144	    -0.23541	71.3226   	20.00000	0.95909
  188.379	    	   19.27080	    -0.23515	71.3217   	20.00000	0.95892
  188.689	    	   19.30016	    -0.23604	71.3197   	20.00000	0.95875
  188.999	    	   19.32953	    -0.23694	71.3163   	20.00000	0.95859
  189.309	    	   19.35892	    -0.23696	71.3123   	20.00000	0.95842
  189.619	    	   19.38834	    -0.23728	71.3067   	20.00000	0.95826
  189.929	    	   19.41778	    -0.23807	71.301   	20.00000	0.95809
  190.239	    	   19.44723	    -0.23809	71.2955   	20.00000	0.95792
  190.549	    	   19.47667	    -0.23895	71.2923   	20.00000	0.95776
  190.859	    	   19.50611	    -0.23880	71.2895   	20.00000	0.95759
  191.169	    	   19.53553	    -0.23876	71.2872   	20.00000	0.95743
  191.479	    	   19.56493	    -0.23955	71.2845   	20.00000	0.95726
  191.789	    	   19.59429	    -0.23980	71.2814   	20.00000	0.95710
  192.099	    	   19.62364	    -0.23996	71.2774   	20.00000	0.95693
  192.409	    	   19.65297	    -0.24147	71.2729   	20.00000	0.95676
  192.719	    	   19.68229	    -0.24138	71.2694   	20.00000	0.95660
  193.029	    	   19.71163	    -0.24208	71.2678   	20.00000	0.95643
  193.339	    	   19.74100	    -0.24265	71.2669   	20.00000	0.95627
  193.649	    	   19.77039	    -0.24264	71.2662   	20.00000	0.95610
  193.959	    	   19.79980	    -0.24371	71.2653   	20.00000	0.95594
  194.269	    	   19.82922	    -0.24349	71.2634   	20.00000	0.95577
  194.579	    	   19.85864	    -0.24466	71.2608   	20.00000	0.95560
  194.889	    	   19.88807	    -0.24532	71.2584   	20.00000	0.95544
  195.199	    	   19.91749	    -0.24564	71.2557   	20.00000	0.95527
  195.509	    	   19.94690	    -0.24728	71.2535   	20.00000	0.95511
  195.819	    	   19.97630	    -0.24659	71.2512   	20.00000	0.95494
  196.129	    	   20.00569	    -0.24702	71.2492   	20.00000	0.95478
  196.439	    	   20.03507	    -0.24742	71.2464   	20.00000	0.95461
  196.749	    	   20.06446	    -0.24771	71.243   	20.00000	0.95445
  197.059	    	   20.09383	    -0.24847	71.2383   	20.00000	0.95428
  197.369	    	   20.12319	    -0.24886	71.2337   	20.00000	0.95412
  197.679	    	   20.15255	    -0.24965	71.2297   	20.00000	0.95395
  197.989	    	   20.18191	    -0.25061	71.2259   	20.00000	0.95379
  198.299	    	   20.21129	    -0.25135	71.2227   	20.00000	0.95362
  198.609	    	   20.24067	    -0.25179	71.2177   	20.00000	0.95345
  198.919	    	   20.27006	    -0.25284	71.2132   	20.00000	0.95329
  199.229	    	   20.29947	    -0.25447	71.2066   	20.00000	0.95312
  199.539	    	   20.32891	    -0.25501	71.2007   	20.00000	0.95296
  199.849	    	   20.35836	    -0.25680	71.1934   	20.00000	0.95279
  200.159	    	   20.38782	    -0.25866	71.1872   	20.00000	0.95263
  200.469	    	   20.41728	    -0.26166	71.18   	20.00000	0.95246
  200.779	    	   20.44675	    -0.26517	71.1732   	20.00000	0.95230
  201.089	    	   20.47620	    -0.26863	71.1647   	20.00000	0.95213
  201.399	    	   20.50565	    -0.27324	71.1569   	20.00000	0.95197
  201.709	    	   20.53509	    -0.27786	71.1479   	20.00000	0.95180
  202.019	    	   20.56453	    -0.28302	71.1389   	20.00000	0.95164
  202.329	    	   20.59396	    -0.28994	71.1289   	20.00000	0.95147
  202.639	    	   20.62341	    -0.29532	71.118   	20.00000	0.95131
  202.949	    	   20.65287	    -0.30448	71.1061   	20.00000	0.95114
  203.259	    	   20.68236	    -0.31407	71.0943   	20.00000	0.95098
  203.569	    	   20.71187	    -0.32401	71.0816   	20.00000	0.95082
  203.879	    	   20.74140	    -0.33585	71.0689   	20.00000	0.95065
  204.189	    	   20.77095	    -0.34752	71.0556   	20.00000	0.95049
  204.499	    	   20.80051	    -0.36017	71.0424   	20.00000	0.95032
  204.809	    	   20.83010	    -0.37337	71.0278   	20.00000	0.95016
  205.119	    	   20.85968	    -0.38862	71.0121   	20.00000	0.94999
  205.429	    	   20.88923	    -0.40198	70.9957   	20.00000	0.94983
  205.739	    	   20.91878	    -0.41724	70.9806   	20.00000	0.94966
  206.049	    	   20.94834	    -0.43477	70.9624   	20.00000	0.94950
  206.359	    	   20.97789	    -0.45116	70.9426   	20.00000	0.94933
  206.669	    	   21.00745	    -0.46835	70.9206   	20.00000	0.94917
  206.979	    	   21.03700	    -0.48667	70.8996   	20.00000	0.94900
  207.289	    	   21.06657	    -0.50220	70.8772   	20.00000	0.94884
  207.599	    	   21.09617	    -0.52054	70.8558   	20.00000	0.94868
  207.909	    	   21.12581	    -0.53793	70.8324   	20.00000	0.94851
  208.219	    	   21.15547	    -0.55478	70.8061   	20.00000	0.94835
  208.529	    	   21.18516	    -0.57274	70.7803   	20.00000	0.94818
  208.839	    	   21.21488	    -0.58946	70.7533   	20.00000	0.94802
  209.149	    	   21.24463	    -0.60677	70.7265   	20.00000	0.94785
  209.459	    	   21.27440	    -0.62579	70.6956   	20.00000	0.94769
  209.769	    	   21.30419	    -0.64168	70.6692   	20.00000	0.94753
  210.079	    	   21.33401	    -0.65902	70.6389   	20.00000	0.94736
  210.389	    	   21.36382	    -0.67565	70.6097   	20.00000	0.94720
  210.699	    	   21.39361	    -0.69343	70.5784   	20.00000	0.94703
  211.009	    	   21.42339	    -0.71127	70.5511   	20.00000	0.94687
  211.319	    	   21.45315	    -0.72805	70.5186   	20.00000	0.94671
  211.629	    	   21.48289	    -0.74344	70.488   	20.00000	0.94654
  211.939	    	   21.51262	    -0.76168	70.4563   	20.00000	0.94638
  212.249	    	   21.54232	    -0.77815	70.4246   	20.00000	0.94621
  212.559	    	   21.57201	    -0.79584	70.3902   	20.00000	0.94605
  212.869	    	   21.60172	    -0.81287	70.3589   	20.00000	0.94589
  213.179	    	   21.63143	    -0.83018	70.3243   	20.00000	0.94572
  213.489	    	   21.66116	    -0.84728	70.2939   	20.00000	0.94556
  213.799	    	   21.69092	    -0.86574	70.2573   	20.00000	0.94539
  214.109	    	   21.72069	    -0.88269	70.2205   	20.00000	0.94523
  214.419	    	   21.75049	    -0.89892	70.1811   	20.00000	0.94507
  214.729	    	   21.78030	    -0.91592	70.1422   	20.00000	0.94490
  215.039	    	   21.81013	    -0.93571	70.1033   	20.00000	0.94474
  215.349	    	   21.83999	    -0.95411	70.064   	20.00000	0.94458
  215.659	    	   21.86984	    -0.97093	70.0267   	20.00000	0.94441
  215.969	    	   21.89970	    -0.98887	69.9857   	20.00000	0.94425
  216.279	    	   21.92956	    -1.00657	69.9439   	20.00000	0.94409
  216.589	    	   21.95942	    -1.02461	69.9014   	20.00000	0.94392
  216.899	    	   21.98928	    -1.04394	69.8567   	20.00000	0.94376
  217.209	    	   22.01914	    -1.06182	69.8101   	20.00000	0.94360
  217.519	    	   22.04897	    -1.08105	69.7632   	20.00000	0.94343
  217.829	    	   22.07880	    -1.09942	69.7158   	20.00000	0.94327
  218.139	    	   22.10861	    -1.11801	69.6674   	20.00000	0.94311
  218.449	    	   22.13842	    -1.13621	69.6211   	20.00000	0.94294
  218.759	    	   22.16824	    -1.15413	69.5753   	20.00000	0.94278
  219.069	    	   22.19805	    -1.17248	69.527   	20.00000	0.94262
  219.379	    	   22.22785	    -1.19247	69.4788   	20.00000	0.94245
  219.689	    	   22.25769	    -1.20950	69.4282   	20.00000	0.94229
  219.999	    	   22.28754	    -1.22868	69.3788   	20.00000	0.94213
  220.309	    	   22.31739	    -1.24786	69.3264   	20.00000	0.94196
  220.619	    	   22.34726	    -1.26519	69.2751   	20.00000	0.94180
  220.929	    	   22.37714	    -1.28395	69.2237   	20.00000	0.94164
  221.239	    	   22.40705	    -1.30226	69.1722   	20.00000	0.94147
  221.549	    	   22.43697	    -1.32096	69.1198   	20.00000	0.94131
  221.859	    	   22.46689	    -1.33843	69.0682   	20.00000	0.94115
  222.169	    	   22.49684	    -1.35741	69.014   	20.00000	0.94098
  222.479	    	   22.52681	    -1.37498	68.9594   	20.00000	0.94082
  222.789	    	   22.55677	    -1.39208	68.9024   	20.00000	0.94066
  223.099	    	   22.58675	    -1.41135	68.8463   	20.00000	0.94050
  223.409	    	   22.61672	    -1.42787	68.7906   	20.00000	0.94033
  223.719	    	   22.64671	    -1.44561	68.7347   	20.00000	0.94017
  224.029	    	   22.67672	    -1.46301	68.6775   	20.00000	0.94001
  224.339	    	   22.70671	    -1.48066	68.6217   	20.00000	0.93984
  224.649	    	   22.73670	    -1.49762	68.5646   	20.00000	0.93968
  224.959	    	   22.76669	    -1.51487	68.5066   	20.00000	0.93952
  225.269	    	   22.79667	    -1.53103	68.4464   	20.00000	0.93936
  225.579	    	   22.82663	    -1.54785	68.3885   	20.00000	0.93919
  225.889	    	   22.85659	    -1.56404	68.3304   	20.00000	0.93903
  226.199	    	   22.88655	    -1.57990	68.2682   	20.00000	0.93887
  226.509	    	   22.91652	    -1.59480	68.2029   	20.00000	0.93871
  226.819	    	   22.94647	    -1.61138	68.1396   	20.00000	0.93854
  227.129	    	   22.97644	    -1.62661	68.0744   	20.00000	0.93838
  227.439	    	   23.00642	    -1.64157	68.0105   	20.00000	0.93822
  227.749	    	   23.03641	    -1.65474	67.9457   	20.00000	0.93806
  228.059	    	   23.06639	    -1.67023	67.8836   	20.00000	0.93789
  228.369	    	   23.09635	    -1.68358	67.8217   	20.00000	0.93773
  228.679	    	   23.12631	    -1.69825	67.7612   	20.00000	0.93757
  228.989	    	   23.15627	    -1.71195	67.7006   	20.00000	0.93741
  229.299	    	   23.18621	    -1.72157	67.638   	20.00000	0.93725
  229.609	    	   23.21613	    -1.73624	67.5743   	20.00000	0.93708
  229.919	    	   23.24605	    -1.74942	67.5098   	20.00000	0.93692
  230.229	    	   23.27596	    -1.75929	67.4454   	20.00000	0.93676
  230.539	    	   23.30587	    -1.77124	67.3815   	20.00000	0.93660
  230.849	    	   23.33578	    -1.77913	67.3171   	20.00000	0.93644
  231.159	    	   23.36569	    -1.79082	67.2511   	20.00000	0.93627
  231.469	    	   23.39561	    -1.79951	67.1867   	20.00000	0.93611
  231.779	    	   23.42553	    -1.81100	67.1224   	20.00000	0.93595
  232.089	    	   23.45547	    -1.81940	67.0592   	20.00000	0.93579
  232.399	    	   23.48541	    -1.82490	66.9945   	20.00000	0.93563
  232.709	    	   23.51536	    -1.83273	66.9322   	20.00000	0.93546
  233.019	    	   23.54531	    -1.84026	66.8705   	20.00000	0.93530
  233.329	    	   23.57526	    -1.84480	66.807   	20.00000	0.93514
  233.639	    	   23.60521	    -1.85097	66.7458   	20.00000	0.93498
  233.949	    	   23.63515	    -1.85482	66.6823   	20.00000	0.93482
  234.259	    	   23.66507	    -1.85860	66.6222   	20.00000	0.93466
  234.569	    	   23.69498	    -1.86190	66.5626   	20.00000	0.93449
  234.879	    	   23.72488	    -1.86452	66.5042   	20.00000	0.93433
  235.189	    	   23.75475	    -1.86631	66.4467   	20.00000	0.93417
  235.499	    	   23.78460	    -1.86667	66.3887   	20.00000	0.93401
  235.809	    	   23.81443	    -1.86665	66.3292   	20.00000	0.93385
  236.119	    	   23.84422	    -1.86541	66.2691   	20.00000	0.93369
  236.429	    	   23.87399	    -1.86349	66.209   	20.00000	0.93352
  236.739	    	   23.90375	    -1.86033	66.1508   	20.00000	0.93336
  237.049	    	   23.93350	    -1.85655	66.0942   	20.00000	0.93320
  237.359	    	   23.96325	    -1.85085	66.0349   	20.00000	0.93304
  237.669	    	   23.99299	    -1.84607	65.9789   	20.00000	0.93288
  237.979	    	   24.02273	    -1.83921	65.923   	20.00000	0.93272
  238.289	    	   24.05249	    -1.83069	65.8689   	20.00000	0.93256
  238.599	    	   24.08227	    -1.82279	65.8114   	20.00000	0.93240
  238.909	    	   24.11202	    -1.81345	65.7576   	20.00000	0.93223
  239.219	    	   24.14176	    -1.80341	65.7037   	20.00000	0.93207
  239.529	    	   24.17147	    -1.79123	65.6535   	20.00000	0.93191
  239.839	    	   24.20120	    -1.77929	65.603   	20.00000	0.93175
  240.149	    	   24.23093	    -1.76596	65.5539   	20.00000	0.93159
  240.459	    	   24.26064	    -1.75105	65.5064   	20.00000	0.93143
  240.769	    	   24.29037	    -1.73629	65.4592   	20.00000	0.93127
  241.079	    	   24.32013	    -1.72088	65.4137   	20.00000	0.93111
  241.389	    	   24.34992	    -1.70317	65.3672   	20.00000	0.93095
  241.699	    	   24.37970	    -1.68493	65.3257   	20.00000	0.93079
  242.009	    	   24.40944	    -1.66727	65.2809   	20.00000	0.93063
  242.319	    	   24.43913	    -1.64674	65.2402   	20.00000	0.93046
  242.629	    	   24.46879	    -1.62643	65.1986   	20.00000	0.93030
  242.939	    	   24.49838	    -1.60481	65.1587   	20.00000	0.93014
  243.249	    	   24.52791	    -1.58390	65.1194   	20.00000	0.92998
  243.559	    	   24.55739	    -1.56166	65.0803   	20.00000	0.92982
  243.869	    	   24.58684	    -1.53851	65.0465   	20.00000	0.92966
  244.179	    	   24.61630	    -1.51562	65.0142   	20.00000	0.92950
  244.489	    	   24.64575	    -1.49079	64.9798   	20.00000	0.92934
  244.799	    	   24.67521	    -1.46635	64.9467   	20.00000	0.92918
  245.109	    	   24.70463	    -1.44223	64.9126   	20.00000	0.92902
  245.419	    	   24.73401	    -1.41651	64.8808   	20.00000	0.92886
  245.729	    	   24.76335	    -1.39037	64.8519   	20.00000	0.92870
  246.039	    	   24.79263	    -1.36492	64.8224   	20.00000	0.92854
  246.349	    	   24.82187	    -1.33928	64.7956   	20.00000	0.92838
  246.659	    	   24.85106	    -1.31250	64.7654   	20.00000	0.92822
  246.969	    	   24.88019	    -1.28467	64.7378   	20.00000	0.92806
  247.279	    	   24.90935	    -1.25855	64.7121   	20.00000	0.92790
  247.589	    	   24.93853	    -1.23219	64.6873   	20.00000	0.92774
  247.899	    	   24.96773	    -1.20525	64.6658   	20.00000	0.92758
  248.209	    	   24.99695	    -1.17759	64.6444   	20.00000	0.92742
  248.519	    	   25.02617	    -1.14991	64.6222   	20.00000	0.92726
  248.829	    	   25.05542	    -1.12393	64.6016   	20.00000	0.92710
  249.139	    	   25.08468	    -1.09591	64.5794   	20.00000	0.92694
  249.449	    	   25.11393	    -1.06885	64.5581   	20.00000	0.92678
  249.759	    	   25.14316	    -1.04153	64.5386   	20.00000	0.92662
  250.069	    	   25.17237	    -1.01588	64.5196   	20.00000	0.92646
  250.379	    	   25.20158	    -0.98904	64.5058   	20.00000	0.92630
  250.689	    	   25.23079	    -0.96177	64.4905   	20.00000	0.92614
  250.999	    	   25.25999	    -0.93488	64.4777   	20.00000	0.92598
  251.309	    	   25.28917	    -0.91000	64.464   	20.00000	0.92582
  251.619	    	   25.31834	    -0.88543	64.4505   	20.00000	0.92566
  251.929	    	   25.34751	    -0.85884	64.4351   	20.00000	0.92550
  252.239	    	   25.37669	    -0.83440	64.4225   	20.00000	0.92534
  252.549	    	   25.40588	    -0.81026	64.4102   	20.00000	0.92518
  252.859	    	   25.43505	    -0.78617	64.398   	20.00000	0.92502
  253.169	    	   25.46423	    -0.76168	64.3862   	20.00000	0.92486
  253.479	    	   25.49341	    -0.73902	64.3738   	20.00000	0.92470
  253.789	    	   25.52262	    -0.71647	64.3632   	20.00000	0.92454
  254.099	    	   25.55183	    -0.69370	64.3534   	20.00000	0.92438
  254.409	    	   25.58102	    -0.67205	64.3447   	20.00000	0.92422
  254.719	    	   25.61022	    -0.65090	64.3377   	20.00000	0.92407
  255.029	    	   25.63943	    -0.63033	64.3303   	20.00000	0.92391
  255.339	    	   25.66864	    -0.60993	64.3218   	20.00000	0.92375
  255.649	    	   25.69784	    -0.58994	64.313   	20.00000	0.92359
  255.959	    	   25.72704	    -0.57078	64.3031   	20.00000	0.92343
  256.269	    	   25.75623	    -0.55187	64.2957   	20.00000	0.92327
  256.579	    	   25.78543	    -0.53440	64.2893   	20.00000	0.92311
  256.889	    	   25.81462	    -0.51703	64.2842   	20.00000	0.92295
  257.199	    	   25.84380	    -0.50210	64.28   	20.00000	0.92279
  257.509	    	   25.87300	    -0.48460	64.2753   	20.00000	0.92263
  257.819	    	   25.90219	    -0.46883	64.2699   	20.00000	0.92247
  258.129	    	   25.93139	    -0.45368	64.2632   	20.00000	0.92232
  258.439	    	   25.96060	    -0.43804	64.2554   	20.00000	0.92216
  258.749	    	   25.98982	    -0.42545	64.2488   	20.00000	0.92200
  259.059	    	   26.01904	    -0.41175	64.2443   	20.00000	0.92184
  259.369	    	   26.04829	    -0.39847	64.2404   	20.00000	0.92168
  259.679	    	   26.07754	    -0.38631	64.2378   	20.00000	0.92152
  259.989	    	   26.10680	    -0.37514	64.2357   	20.00000	0.92136
  260.299	    	   26.13607	    -0.36306	64.2328   	20.00000	0.92121
  260.609	    	   26.16535	    -0.35186	64.2295   	20.00000	0.92105
  260.919	    	   26.19462	    -0.34157	64.2251   	20.00000	0.92089
  261.229	    	   26.22390	    -0.33265	64.2214   	20.00000	0.92073
  261.539	    	   26.25317	    -0.32225	64.219   	20.00000	0.92057
  261.849	    	   26.28245	    -0.31431	64.2178   	20.00000	0.92041
  262.159	    	   26.31172	    -0.30522	64.2164   	20.00000	0.92025
  262.469	    	   26.34101	    -0.29688	64.2154   	20.00000	0.92010
  262.779	    	   26.37031	    -0.28862	64.2141   	20.00000	0.91994
  263.089	    	   26.39962	    -0.28082	64.2125   	20.00000	0.91978
  263.399	    	   26.42896	    -0.27521	64.2097   	20.00000	0.91962
  263.709	    	   26.45830	    -0.26744	64.2068   	20.00000	0.91946
  264.019	    	   26.48764	    -0.26177	64.2036   	20.00000	0.91931
  264.329	    	   26.51699	    -0.25629	64.2019   	20.00000	0.91915
  264.639	    	   26.54634	    -0.25073	64.1996   	20.00000	0.91899
  264.949	    	   26.57569	    -0.24453	64.1981   	20.00000	0.91883
  265.259	    	   26.60503	    -0.23978	64.1958   	20.00000	0.91867
  265.569	    	   26.63435	    -0.23534	64.1938   	20.00000	0.91852
  265.879	    	   26.66366	    -0.23168	64.1923   	20.00000	0.91836
  266.189	    	   26.69298	    -0.22748	64.1913   	20.00000	0.91820
  266.499	    	   26.72230	    -0.22337	64.19   	20.00000	0.91804
  266.809	    	   26.75161	    -0.22125	64.1891   	20.00000	0.91789
  267.119	    	   26.78093	    -0.21707	64.1881   	20.00000	0.91773
  267.429	    	   26.81026	    -0.21485	64.1871   	20.00000	0.91757
  267.739	    	   26.83961	    -0.21079	64.1863   	20.00000	0.91741
  268.049	    	   26.86899	    -0.20798	64.1852   	20.00000	0.91725
  268.359	    	   26.89836	    -0.20513	64.1838   	20.00000	0.91710
  268.669	    	   26.92774	    -0.20351	64.1821   	20.00000	0.91694
  268.979	    	   26.95714	    -0.20028	64.1809   	20.00000	0.91678
  269.289	    	   26.98655	    -0.19865	64.1809   	20.00000	0.91662
  269.599	    	   27.01598	    -0.19565	64.1816   	20.00000	0.91647
  269.909	    	   27.04541	    -0.19372	64.1834   	20.00000	0.91631
  270.219	    	   27.07484	    -0.19225	64.1854   	20.00000	0.91615
  270.529	    	   27.10429	    -0.19043	64.1869   	20.00000	0.91600
  270.839	    	   27.13373	    -0.18890	64.188   	20.00000	0.91584
  271.149	    	   27.16318	    -0.18689	64.1881   	20.00000	0.91568
  271.459	    	   27.19261	    -0.18581	64.1879   	20.00000	0.91552
  271.769	    	   27.22204	    -0.18399	64.1874   	20.00000	0.91537
  272.079	    	   27.25146	    -0.18344	64.1874   	20.00000	0.91521
  272.389	    	   27.28089	    -0.18167	64.1878   	20.00000	0.91505
  272.699	    	   27.31031	    -0.18003	64.1893   	20.00000	0.91490
  273.009	    	   27.33976	    -0.17938	64.1914   	20.00000	0.91474
  273.319	    	   27.36922	    -0.17801	64.194   	20.00000	0.91458
  273.629	    	   27.39869	    -0.17693	64.1965   	20.00000	0.91443
  273.939	    	   27.42819	    -0.17585	64.1982   	20.00000	0.91427
  274.249	    	   27.45772	    -0.17559	64.198   	20.00000	0.91411
  274.559	    	   27.48727	    -0.17536	64.1964   	20.00000	0.91396
  274.869	    	   27.51683	    -0.17434	64.1933   	20.00000	0.91380
  275.179	    	   27.54640	    -0.17311	64.1891   	20.00000	0.91364
  275.489	    	   27.57600	    -0.17245	64.1846   	20.00000	0.91349
  275.799	    	   27.60560	    -0.17177	64.1813   	20.00000	0.91333
  276.109	    	   27.63519	    -0.17062	64.1788   	20.00000	0.91317
  276.419	    	   27.66476	    -0.17043	64.1779   	20.00000	0.91302
  276.729	    	   27.69434	    -0.16940	64.1777   	20.00000	0.91286
  277.039	    	   27.72391	    -0.16860	64.1778   	20.00000	0.91270
  277.349	    	   27.75348	    -0.16723	64.1773   	20.00000	0.91255
  277.659	    	   27.78302	    -0.16698	64.1765   	20.00000	0.91239
  277.969	    	   27.81257	    -0.16691	64.1757   	20.00000	0.91223
  278.279	    	   27.84212	    -0.16593	64.1752   	20.00000	0.91208
  278.589	    	   27.87168	    -0.16511	64.1751   	20.00000	0.91192
  278.899	    	   27.90124	    -0.16525	64.1762   	20.00000	0.91177
  279.209	    	   27.93081	    -0.16454	64.1762   	20.00000	0.91161
  279.519	    	   27.96039	    -0.16423	64.1769   	20.00000	0.91145
  279.829	    	   27.98999	    -0.16355	64.1765   	20.00000	0.91130
  280.139	    	   28.01959	    -0.16359	64.1762   	20.00000	0.91114
  280.449	    	   28.04919	    -0.16254	64.1756   	20.00000	0.91099
  280.759	    	   28.07881	    -0.16241	64.1752   	20.00000	0.91083
  281.069	    	   28.10842	    -0.16190	64.1752   	20.00000	0.91068
  281.379	    	   28.13804	    -0.16202	64.176   	20.00000	0.91052
  281.689	    	   28.16766	    -0.16133	64.1774   	20.00000	0.91036
  281.999	    	   28.19729	    -0.16078	64.1787   	20.00000	0.91021
  282.309	    	   28.22693	    -0.16086	64.1789   	20.00000	0.91005
  282.619	    	   28.25657	    -0.16050	64.1789   	20.00000	0.90990
  282.929	    	   28.28621	    -0.16002	64.1789   	20.00000	0.90974
  283.239	    	   28.31585	    -0.15922	64.1792   	20.00000	0.90959
  283.549	    	   28.34549	    -0.15961	64.1801   	20.00000	0.90943
  283.859	    	   28.37512	    -0.15918	64.1809   	20.00000	0.90927
  284.169	    	   28.40475	    -0.15815	64.1815   	20.00000	0.90912
  284.479	    	   28.43438	    -0.15841	64.1817   	20.00000	0.90896
  284.789	    	   28.46403	    -0.15850	64.1809   	20.00000	0.90881
  285.099	    	   28.49368	    -0.15826	64.1801   	20.00000	0.90865
  285.409	    	   28.52335	    -0.15801	64.1796   	20.00000	0.90850
  285.719	    	   28.55303	    -0.15805	64.1793   	20.00000	0.90834
  286.029	    	   28.58272	    -0.15766	64.1795   	20.00000	0.90819
  286.339	    	   28.61241	    -0.15733	64.1798   	20.00000	0.90803
  286.649	    	   28.64209	    -0.15734	64.1796   	20.00000	0.90788
  286.959	    	   28.67176	    -0.15649	64.1791   	20.00000	0.90772
  287.269	    	   28.70144	    -0.15734	64.1785   	20.00000	0.90757
  287.579	    	   28.73111	    -0.15699	64.1782   	20.00000	0.90741
  287.889	    	   28.76078	    -0.15621	64.1787   	20.00000	0.90726
  288.199	    	   28.79043	    -0.15623	64.1806   	20.00000	0.90710
  288.509	    	   28.82007	    -0.15663	64.1851   	20.00000	0.90695
  288.819	    	   28.84973	    -0.15678	64.1853   	20.00000	0.90679
  289.129	    	   28.87939	    -0.15679	64.1827   	20.00000	0.90664
  289.439	    	   28.90904	    -0.15681	64.1776   	20.00000	0.90649
  289.749	    	   28.93869	    -0.15674	64.1769   	20.00000	0.90633
  290.059	    	   28.96834	    -0.15634	64.1768   	20.00000	0.90618
  290.369	    	   28.99800	    -0.15611	64.1767   	20.00000	0.90602
  290.679	    	   29.02767	    -0.15574	64.176   	20.00000	0.90587
  290.989	    	   29.05734	    -0.15572	64.1761   	20.00000	0.90571
  291.299	    	   29.08701	    -0.15527	64.1759   	20.00000	0.90556
  291.609	    	   29.11671	    -0.15491	64.1763   	20.00000	0.90540
  291.919	    	   29.14642	    -0.15527	64.1764   	20.00000	0.90525
  292.229	    	   29.17615	    -0.15577	64.1769   	20.00000	0.90510
  292.539	    	   29.20590	    -0.15527	64.177   	20.00000	0.90494
  292.849	    	   29.23566	    -0.15474	64.1772   	20.00000	0.90479
  293.159	    	   29.26543	    -0.15510	64.177   	20.00000	0.90463
  293.469	    	   29.29520	    -0.15433	64.1776   	20.00000	0.90448
  293.779	    	   29.32497	    -0.15483	64.1787   	20.00000	0.90433
  294.089	    	   29.35473	    -0.15519	64.1802   	20.00000	0.90417
  294.399	    	   29.38449	    -0.15568	64.1817   	20.00000	0.90402
  294.709	    	   29.41423	    -0.15496	64.1832   	20.00000	0.90386
  295.019	    	   29.44398	    -0.15471	64.183   	20.00000	0.90371
  295.329	    	   29.47372	    -0.15487	64.1821   	20.00000	0.90356
  295.639	    	   29.50347	    -0.15491	64.1802   	20.00000	0.90340
  295.949	    	   29.53322	    -0.15494	64.1775   	20.00000	0.90325
  296.259	    	   29.56297	    -0.15491	64.1768   	20.00000	0.90310
  296.569	    	   29.59273	    -0.15430	64.178   	20.00000	0.90294
  296.879	    	   29.62249	    -0.15455	64.1802   	20.00000	0.90279
  297.189	    	   29.65226	    -0.15435	64.1818   	20.00000	0.90263
  297.499	    	   29.68203	    -0.15424	64.1799   	20.00000	0.90248
  297.809	    	   29.71181	    -0.15505	64.1751   	20.00000	0.90233
  298.119	    	   29.74160	    -0.15420	64.171   	20.00000	0.90217
  298.429	    	   29.77141	    -0.15409	64.169   	20.00000	0.90202
  298.739	    	   29.80122	    -0.15438	64.1677   	20.00000	0.90187
  299.049	    	   29.83103	    -0.15408	64.1663   	20.00000	0.90171
  299.359	    	   29.86086	    -0.15415	64.1663   	20.00000	0.90156
  299.669	    	   29.89068	    -0.15463	64.1681   	20.00000	0.90141
  299.979	    	   29.92048	    -0.15426	64.1707   	20.00000	0.90126
  300.289	    	   29.95027	    -0.15407	64.1714   	20.00000	0.90110
  300.599	    	   29.98007	    -0.15374	64.1713   	20.00000	0.90095
  300.909	    	   30.00986	    -0.15461	64.171   	20.00000	0.90080
  301.219	    	   30.03967	    -0.15521	64.1717   	20.00000	0.90064
  301.529	    	   30.06947	    -0.15383	64.1736   	20.00000	0.90049
  301.839	    	   30.09927	    -0.15456	64.1756   	20.00000	0.90034
  302.149	    	   30.12909	    -0.15463	64.1775   	20.00000	0.90019
  302.459	    	   30.15891	    -0.15405	64.1788   	20.00000	0.90003
  302.769	    	   30.18872	    -0.15494	64.1781   	20.00000	0.89988
  303.079	    	   30.21851	    -0.15380	64.177   	20.00000	0.89973
  303.389	    	   30.24830	    -0.15497	64.1758   	20.00000	0.89957
  303.699	    	   30.27809	    -0.15524	64.1745   	20.00000	0.89942
  304.009	    	   30.30788	    -0.15514	64.1734   	20.00000	0.89927
  304.319	    	   30.33766	    -0.15491	64.1729   	20.00000	0.89912
  304.629	    	   30.36744	    -0.15535	64.1728   	20.00000	0.89897
  304.939	    	   30.39724	    -0.15443	64.1725   	20.00000	0.89881
  305.249	    	   30.42703	    -0.15509	64.1728   	20.00000	0.89866
  305.559	    	   30.45681	    -0.15419	64.1728   	20.00000	0.89851
  305.869	    	   30.48659	    -0.15518	64.1737   	20.00000	0.89836
  306.179	    	   30.51640	    -0.15461	64.1739   	20.00000	0.89820
  306.489	    	   30.54622	    -0.15482	64.1741   	20.00000	0.89805
  306.799	    	   30.57604	    -0.15486	64.174   	20.00000	0.89790
  307.109	    	   30.60587	    -0.15558	64.1746   	20.00000	0.89775
  307.419	    	   30.63572	    -0.15563	64.1755   	20.00000	0.89760
  307.729	    	   30.66559	    -0.15581	64.1771   	20.00000	0.89744
  308.039	    	   30.69546	    -0.15593	64.1807   	20.00000	0.89729
  308.349	    	   30.72531	    -0.15606	64.1854   	20.00000	0.89714
  308.659	    	   30.75513	    -0.15595	64.1887   	20.00000	0.89699
  308.969	    	   30.78496	    -0.15528	64.1884   	20.00000	0.89684
  309.279	    	   30.81478	    -0.15519	64.1833   	20.00000	0.89669
  309.589	    	   30.84459	    -0.15620	64.1783   	20.00000	0.89653
  309.899	    	   30.87439	    -0.15635	64.1756   	20.00000	0.89638
  310.209	    	   30.90418	    -0.15631	64.1717   	20.00000	0.89623
  310.519	    	   30.93399	    -0.15629	64.1678   	20.00000	0.89608
  310.829	    	   30.96381	    -0.15621	64.1627   	20.00000	0.89593
  311.139	    	   30.99363	    -0.15681	64.1617   	20.00000	0.89578
  311.449	    	   31.02345	    -0.15629	64.1613   	20.00000	0.89563
  311.759	    	   31.05328	    -0.15659	64.1619   	20.00000	0.89547
  312.069	    	   31.08311	    -0.15558	64.1631   	20.00000	0.89532
  312.379	    	   31.11294	    -0.15571	64.1636   	20.00000	0.89517
  312.689	    	   31.14278	    -0.15601	64.1642   	20.00000	0.89502
  312.999	    	   31.17265	    -0.15677	64.1638   	20.00000	0.89487
  313.309	    	   31.20253	    -0.15569	64.1642   	20.00000	0.89472
  313.619	    	   31.23245	    -0.15616	64.1646   	20.00000	0.89457
  313.929	    	   31.26236	    -0.15585	64.1661   	20.00000	0.89442
  314.239	    	   31.29227	    -0.15635	64.1676   	20.00000	0.89427
  314.549	    	   31.32217	    -0.15671	64.1687   	20.00000	0.89412
  314.859	    	   31.35205	    -0.15676	64.1699   	20.00000	0.89396
  315.169	    	   31.38188	    -0.15570	64.1709   	20.00000	0.89381
  315.479	    	   31.41165	    -0.15660	64.1721   	20.00000	0.89366
  315.789	    	   31.44137	    -0.15631	64.1732   	20.00000	0.89351
  316.099	    	   31.47109	    -0.15673	64.1739   	20.00000	0.89336
  316.409	    	   31.50081	    -0.15691	64.174   	20.00000	0.89321
  316.719	    	   31.53054	    -0.15682	64.1737   	20.00000	0.89306
  317.029	    	   31.56028	    -0.15679	64.1738   	20.00000	0.89291
  317.339	    	   31.59006	    -0.15732	64.1737   	20.00000	0.89276
  317.649	    	   31.61986	    -0.15614	64.1736   	20.00000	0.89261
  317.959	    	   31.64968	    -0.15639	64.1728   	20.00000	0.89246
  318.269	    	   31.67952	    -0.15642	64.1719   	20.00000	0.89231
  318.579	    	   31.70937	    -0.15704	64.1696   	20.00000	0.89216
  318.889	    	   31.73921	    -0.15688	64.167   	20.00000	0.89201
  319.199	    	   31.76907	    -0.15614	64.1645   	20.00000	0.89186
  319.509	    	   31.79893	    -0.15710	64.1634   	20.00000	0.89171
  319.819	    	   31.82880	    -0.15673	64.163   	20.00000	0.89156
  320.129	    	   31.85868	    -0.15657	64.1632   	20.00000	0.89141
  320.439	    	   31.88856	    -0.15756	64.1632   	20.00000	0.89126
  320.749	    	   31.91845	    -0.15680	64.1633   	20.00000	0.89111
  321.059	    	   31.94833	    -0.15704	64.1634   	20.00000	0.89096
  321.369	    	   31.97819	    -0.15710	64.1632   	20.00000	0.89081
  321.679	    	   32.00806	    -0.15667	64.1635   	20.00000	0.89066
  321.989	    	   32.03794	    -0.15658	64.1641   	20.00000	0.89051
  322.299	    	   32.06780	    -0.15637	64.1651   	20.00000	0.89036
  322.609	    	   32.09767	    -0.15683	64.1662   	20.00000	0.89021
  322.919	    	   32.12753	    -0.15631	64.1668   	20.00000	0.89006
  323.229	    	   32.15740	    -0.15695	64.1676   	20.00000	0.88991
  323.539	    	   32.18729	    -0.15661	64.1687   	20.00000	0.88976
  323.849	    	   32.21719	    -0.15658	64.1695   	20.00000	0.88961
  324.159	    	   32.24709	    -0.15681	64.1694   	20.00000	0.88946
  324.469	    	   32.27699	    -0.15728	64.1684   	20.00000	0.88932
  324.779	    	   32.30691	    -0.15623	64.1677   	20.00000	0.88917
  325.089	    	   32.33683	    -0.15651	64.1678   	20.00000	0.88902
  325.399	    	   32.36678	    -0.15669	64.1684   	20.00000	0.88887
  325.709	    	   32.39673	    -0.15655	64.1682   	20.00000	0.88872
  326.019	    	   32.42667	    -0.15707	64.1683   	20.00000	0.88857
  326.329	    	   32.45663	    -0.15699	64.1672   	20.00000	0.88842
  326.639	    	   32.48659	    -0.15650	64.1667   	20.00000	0.88827
  326.949	    	   32.51654	    -0.15660	64.1654   	20.00000	0.88812
  327.259	    	   32.54649	    -0.15687	64.1644   	20.00000	0.88797
  327.569	    	   32.57644	    -0.15686	64.1624   	20.00000	0.88783
  327.879	    	   32.60638	    -0.15709	64.16   	20.00000	0.88768
  328.189	    	   32.63633	    -0.15736	64.1578   	20.00000	0.88753
